  Measurement Number     Measurement type
                  21                DC IV

      Measurement ID             SeriesID
       739681.663386                    0

         MeasureMode                Bias1                Bias2
                   1                    0                   -4

                Step  Positive compliance  Negative compliance
                 0.2                  0.1                  0.1

  RealMeasuredPoints
                  42

        Bias        Current     Resistance
0.0000e+00   6.1543e-08   0.0000e+00
-2.0000e-01   -5.8408e-05   3.4242e+03
-4.0000e-01   -1.1692e-04   3.4211e+03
-6.0000e-01   -1.7532e-04   3.4223e+03
-8.0000e-01   -2.3376e-04   3.4223e+03
-1.0000e+00   -2.9204e-04   3.4242e+03
-1.2000e+00   -3.5026e-04   3.4260e+03
-1.4000e+00   -4.0844e-04   3.4277e+03
-1.6000e+00   -4.6658e-04   3.4292e+03
-1.8000e+00   -5.2454e-04   3.4316e+03
-2.0000e+00   -5.8246e-04   3.4337e+03
-2.2000e+00   -6.4024e-04   3.4362e+03
-2.4000e+00   -6.9736e-04   3.4416e+03
-2.6000e+00   -7.5486e-04   3.4443e+03
-2.8000e+00   -8.1118e-04   3.4518e+03
-3.0000e+00   -8.6638e-04   3.4627e+03
-3.2000e+00   -9.2124e-04   3.4736e+03
-3.4000e+00   -9.7414e-04   3.4903e+03
-3.6000e+00   -1.0186e-03   3.5344e+03
-3.8000e+00   -5.1568e-05   7.3689e+04
-4.0000e+00   -6.2448e-05   6.4053e+04
-4.0000e+00   -6.5654e-05   6.0925e+04
-3.8000e+00   -6.0828e-05   6.2471e+04
-3.6000e+00   -5.3730e-05   6.7002e+04
-3.4000e+00   -4.7732e-05   7.1231e+04
-3.2000e+00   -4.1538e-05   7.7038e+04
-3.0000e+00   -3.5444e-05   8.4641e+04
-2.8000e+00   -3.4888e-05   8.0257e+04
-2.6000e+00   -2.5264e-05   1.0291e+05
-2.4000e+00   -2.0248e-05   1.1853e+05
-2.2000e+00   -1.7648e-05   1.2466e+05
-2.0000e+00   -1.3836e-05   1.4455e+05
-1.8000e+00   -1.0552e-05   1.7058e+05
-1.6000e+00   -7.6527e-06   2.0908e+05
-1.4000e+00   -5.5622e-06   2.5170e+05
-1.2000e+00   -3.6950e-06   3.2476e+05
-1.0000e+00   -2.4834e-06   4.0267e+05
-8.0000e-01   -1.4572e-06   5.4900e+05
-6.0000e-01   -5.9444e-07   1.0094e+06
-4.0000e-01   -2.0668e-07   1.9354e+06
-2.0000e-01   -4.8600e-08   4.1153e+06
0.0000e+00   9.3560e-11   0.0000e+00
