  Measurement Number     Measurement type
                  79                DC IV

      Measurement ID             SeriesID
       739681.628239                    0

         MeasureMode                Bias1                Bias2
                   1                    0                   -4

                Step  Positive compliance  Negative compliance
                 0.2                1e-05                1e-05

  RealMeasuredPoints
                  42

        Bias        Current     Resistance
0.0000e+00   2.9950e-11   0.0000e+00
-2.0000e-01   -2.4927e-08   8.0234e+06
-4.0000e-01   -8.4116e-08   4.7554e+06
-6.0000e-01   -1.1266e-07   5.3258e+06
-8.0000e-01   -9.9677e-06   8.0259e+04
-1.0000e+00   -9.9988e-06   1.0001e+05
-1.2000e+00   -9.9995e-06   1.2001e+05
-1.4000e+00   -9.9990e-06   1.4001e+05
-1.6000e+00   -9.9997e-06   1.6000e+05
-1.8000e+00   -9.9995e-06   1.8001e+05
-2.0000e+00   -9.9985e-06   2.0003e+05
-2.2000e+00   -9.9973e-06   2.2006e+05
-2.4000e+00   -9.9996e-06   2.4001e+05
-2.6000e+00   -9.9988e-06   2.6003e+05
-2.8000e+00   -9.9994e-06   2.8002e+05
-3.0000e+00   -9.9994e-06   3.0002e+05
-3.2000e+00   -9.9993e-06   3.2002e+05
-3.4000e+00   -1.0000e-05   3.4000e+05
-3.6000e+00   -1.0000e-05   3.6000e+05
-3.8000e+00   -9.9994e-06   3.8002e+05
-4.0000e+00   -9.9981e-06   4.0008e+05
-4.0000e+00   -9.9993e-06   4.0003e+05
-3.8000e+00   -9.9988e-06   3.8005e+05
-3.6000e+00   -9.9981e-06   3.6007e+05
-3.4000e+00   -9.9993e-06   3.4002e+05
-3.2000e+00   -9.9994e-06   3.2002e+05
-3.0000e+00   -9.9996e-06   3.0001e+05
-2.8000e+00   -9.9993e-06   2.8002e+05
-2.6000e+00   -9.9995e-06   2.6001e+05
-2.4000e+00   -9.9997e-06   2.4001e+05
-2.2000e+00   -9.9991e-06   2.2002e+05
-2.0000e+00   -9.9995e-06   2.0001e+05
-1.8000e+00   -9.9994e-06   1.8001e+05
-1.6000e+00   -9.9952e-06   1.6008e+05
-1.4000e+00   -9.9996e-06   1.4001e+05
-1.2000e+00   -9.9996e-06   1.2000e+05
-1.0000e+00   -9.9994e-06   1.0001e+05
-8.0000e-01   -9.9994e-06   8.0005e+04
-6.0000e-01   -9.9996e-06   6.0002e+04
-4.0000e-01   -9.9994e-06   4.0002e+04
-2.0000e-01   -5.9158e-06   3.3808e+04
0.0000e+00   9.0430e-09   0.0000e+00
