  Measurement Number     Measurement type
                  13                DC IV

      Measurement ID             SeriesID
       739672.644631                   82

         MeasureMode                Bias1                Bias2
                   2                    2                   -1

                Step  Positive compliance  Negative compliance
                0.05                 0.01                 0.01

  RealMeasuredPoints
                 124

        Bias        Current     Resistance
0.0000e+00   1.1300e-12   0.0000e+00
5.0000e-02   -3.0000e-14   -1.6667e+12
1.0000e-01   1.2600e-12   7.9365e+10
1.5000e-01   7.2700e-12   2.0633e+10
2.0000e-01   5.2200e-12   3.8314e+10
2.5000e-01   3.3000e-12   7.5758e+10
3.0000e-01   2.2500e-12   1.3333e+11
3.5000e-01   8.3400e-12   4.1966e+10
4.0000e-01   1.1110e-11   3.6004e+10
4.5000e-01   3.7000e-12   1.2162e+11
5.0000e-01   2.0100e-12   2.4876e+11
5.5000e-01   5.2700e-12   1.0436e+11
6.0000e-01   8.6600e-12   6.9284e+10
6.5000e-01   9.2300e-12   7.0423e+10
7.0000e-01   4.6400e-12   1.5086e+11
7.5000e-01   5.0600e-12   1.4822e+11
8.0000e-01   5.6500e-12   1.4159e+11
8.5000e-01   1.1590e-11   7.3339e+10
9.0000e-01   1.1980e-11   7.5125e+10
9.5000e-01   9.4400e-12   1.0064e+11
1.0000e+00   7.0400e-12   1.4205e+11
1.0500e+00   9.9000e-12   1.0606e+11
1.1000e+00   1.5610e-11   7.0468e+10
1.1500e+00   1.6500e-11   6.9697e+10
1.2000e+00   8.7000e-12   1.3793e+11
1.2500e+00   1.1020e-11   1.1343e+11
1.3000e+00   1.3920e-11   9.3391e+10
1.3500e+00   1.7450e-11   7.7364e+10
1.4000e+00   2.6110e-11   5.3619e+10
1.4500e+00   2.0230e-11   7.1676e+10
1.5000e+00   2.0330e-11   7.3783e+10
1.5500e+00   1.5540e-11   9.9743e+10
1.6000e+00   5.5800e-11   2.8674e+10
1.6500e+00   1.1413e-10   1.4457e+10
1.7000e+00   1.2890e-10   1.3189e+10
1.7500e+00   2.6169e-10   6.6873e+09
1.8000e+00   7.0411e-10   2.5564e+09
1.8500e+00   4.6565e-10   3.9729e+09
1.9000e+00   7.6168e-10   2.4945e+09
1.9500e+00   8.8660e-10   2.1994e+09
2.0000e+00   1.1683e-09   1.7119e+09
2.0000e+00   1.2222e-09   1.6364e+09
1.9500e+00   1.4623e-09   1.3335e+09
1.9000e+00   1.1870e-09   1.6007e+09
1.8500e+00   1.2786e-09   1.4469e+09
1.8000e+00   1.2817e-09   1.4044e+09
1.7500e+00   1.1910e-09   1.4694e+09
1.7000e+00   8.9980e-10   1.8893e+09
1.6500e+00   8.6010e-10   1.9184e+09
1.6000e+00   9.4231e-10   1.6980e+09
1.5500e+00   6.8255e-10   2.2709e+09
1.5000e+00   7.1045e-10   2.1113e+09
1.4500e+00   6.3995e-10   2.2658e+09
1.4000e+00   4.2196e-10   3.3179e+09
1.3500e+00   4.2349e-10   3.1878e+09
1.3000e+00   3.7065e-10   3.5074e+09
1.2500e+00   3.1142e-10   4.0139e+09
1.2000e+00   1.9475e-10   6.1617e+09
1.1500e+00   1.8121e-10   6.3462e+09
1.1000e+00   1.0889e-10   1.0102e+10
1.0500e+00   1.3462e-10   7.7997e+09
1.0000e+00   2.7060e-11   3.6955e+10
9.5000e-01   9.8800e-11   9.6154e+09
9.0000e-01   2.9710e-11   3.0293e+10
8.5000e-01   1.4960e-11   5.6818e+10
8.0000e-01   7.0890e-11   1.1285e+10
7.5000e-01   1.2230e-11   6.1325e+10
7.0000e-01   9.7300e-12   7.1942e+10
6.5000e-01   1.7860e-11   3.6394e+10
6.0000e-01   -1.6900e-12   -3.5503e+11
5.5000e-01   -1.6600e-12   -3.3133e+11
5.0000e-01   -4.3000e-12   -1.1628e+11
4.5000e-01   -4.0100e-12   -1.1222e+11
4.0000e-01   -3.9800e-12   -1.0050e+11
3.5000e-01   -9.4200e-12   -3.7155e+10
3.0000e-01   -1.2650e-11   -2.3715e+10
2.5000e-01   -1.2020e-11   -2.0799e+10
2.0000e-01   -8.8900e-12   -2.2497e+10
1.5000e-01   -8.0600e-12   -1.8610e+10
1.0000e-01   -1.3620e-11   -7.3421e+09
5.0000e-02   -1.5080e-11   -3.3156e+09
0.0000e+00   -8.2300e-12   -0.0000e+00
0.0000e+00   -3.6400e-12   -0.0000e+00
-5.0000e-02   -8.1400e-12   6.1425e+09
-1.0000e-01   -5.1200e-12   1.9531e+10
-1.5000e-01   -3.2300e-12   4.6440e+10
-2.0000e-01   -6.3400e-12   3.1546e+10
-2.5000e-01   -1.0010e-11   2.4975e+10
-3.0000e-01   -1.0440e-11   2.8736e+10
-3.5000e-01   -9.5200e-12   3.6765e+10
-4.0000e-01   -7.4900e-12   5.3405e+10
-4.5000e-01   -1.1350e-11   3.9648e+10
-5.0000e-01   -1.5630e-11   3.1990e+10
-5.5000e-01   -1.2790e-11   4.3002e+10
-6.0000e-01   -1.1480e-11   5.2265e+10
-6.5000e-01   -1.3300e-11   4.8872e+10
-7.0000e-01   -1.5150e-11   4.6205e+10
-7.5000e-01   -1.7570e-11   4.2686e+10
-8.0000e-01   -1.2180e-11   6.5681e+10
-8.5000e-01   -1.1780e-11   7.2156e+10
-9.0000e-01   -1.5920e-11   5.6533e+10
-9.5000e-01   -1.9720e-11   4.8174e+10
-1.0000e+00   -2.0270e-11   4.9334e+10
-1.0000e+00   -1.3540e-11   7.3855e+10
-9.5000e-01   -8.4600e-12   1.1229e+11
-9.0000e-01   -1.0060e-11   8.9463e+10
-8.5000e-01   -1.0470e-11   8.1184e+10
-8.0000e-01   -2.2400e-12   3.5714e+11
-7.5000e-01   3.1200e-12   -2.4038e+11
-7.0000e-01   1.5400e-12   -4.5455e+11
-6.5000e-01   -2.7300e-12   2.3810e+11
-6.0000e-01   1.4300e-12   -4.1958e+11
-5.5000e-01   5.7000e-12   -9.6491e+10
-5.0000e-01   7.2200e-12   -6.9252e+10
-4.5000e-01   3.4200e-12   -1.3158e+11
-4.0000e-01   -5.3000e-13   7.5472e+11
-3.5000e-01   6.0600e-12   -5.7756e+10
-3.0000e-01   7.9700e-12   -3.7641e+10
-2.5000e-01   4.5100e-12   -5.5432e+10
-2.0000e-01   4.5900e-12   -4.3573e+10
-1.5000e-01   3.5000e-13   -4.2857e+11
-1.0000e-01   4.6100e-12   -2.1692e+10
-5.0000e-02   9.4400e-12   -5.2966e+09
0.0000e+00   2.6300e-12   0.0000e+00
